E	j	j C	j C	j  Ageo
V RHE	mA cm-2	mA mF-1	mA mF-1	mA cm-2
ML_074		I norm by capacitance @ 1.2 VRHE	I norm by capacitance @ 0.5 VRHE	I norm by Ageo
1.2003	0.00962	0.8639	1.39425	0.45828
1.20064	0.00514	0.46182	0.74534	0.24498
1.20112	0.00354	0.31779	0.51288	0.16858
1.20161	0.00267	0.23967	0.38681	0.12714
1.20211	0.00209	0.18724	0.30219	0.09933
1.20261	0.00173	0.15497	0.2501	0.08221
1.2031	0.00148	0.13249	0.21383	0.07028
1.2036	0.00117	0.10463	0.16886	0.0555
1.20411	9.25E-04	0.083	0.13396	0.04403
1.20461	8.29E-04	0.07445	0.12015	0.03949
1.2051	7.04E-04	0.06316	0.10193	0.0335
1.2056	5.93E-04	0.05324	0.08593	0.02824
1.20609	5.88E-04	0.05279	0.0852	0.02801
1.20659	4.82E-04	0.04329	0.06986	0.02296
1.20709	3.62E-04	0.03249	0.05244	0.01724
1.20759	3.70E-04	0.03321	0.05359	0.01762
1.20809	2.90E-04	0.02607	0.04207	0.01383
1.20858	1.79E-04	0.01608	0.02595	0.00853
1.20909	1.67E-04	0.01498	0.02418	0.00795
1.20958	1.87E-04	0.01683	0.02716	0.00893
1.21008	1.08E-04	0.00972	0.01569	0.00516
1.21058	8.85E-05	0.00794	0.01282	0.00421
1.21108	9.91E-05	0.00889	0.01435	0.00472
1.21158	6.42E-05	0.00576	0.00929	0.00305
1.21212	6.14E-05	0.00551	0.0089	0.00292
1.21263	8.38E-05	0.00752	0.01213	0.00399
1.21313	4.18E-05	0.00375	0.00605	0.00199
1.21363	4.15E-05	0.00373	0.00601	0.00198
1.21413	5.17E-05	0.00464	0.00749	0.00246
1.21463	1.20E-05	0.00108	0.00174	5.73E-04
1.21513	1.66E-06	1.49E-04	2.41E-04	7.91E-05
1.21563	3.05E-05	0.00274	0.00442	0.00145
1.21612	-9.21E-06	-8.27E-04	-0.00133	-4.39E-04
1.21662	-3.88E-05	-0.00348	-0.00562	-0.00185
1.21712	4.80E-06	4.30E-04	6.95E-04	2.28E-04
1.21762	2.26E-05	0.00203	0.00327	0.00107
1.21811	-4.57E-05	-0.0041	-0.00661	-0.00217
1.21862	-5.28E-05	-0.00474	-0.00765	-0.00251
1.21911	-2.15E-05	-0.00193	-0.00312	-0.00102
1.21962	-7.60E-05	-0.00683	-0.01102	-0.00362
1.22011	-6.14E-05	-0.00551	-0.00889	-0.00292
1.22061	-2.49E-05	-0.00223	-0.0036	-0.00118
1.22111	-5.26E-05	-0.00472	-0.00762	-0.0025
1.22161	-4.52E-05	-0.00406	-0.00655	-0.00215
1.22211	-2.46E-05	-0.00221	-0.00357	-0.00117
1.2226	-6.23E-05	-0.0056	-0.00903	-0.00297
1.22311	-6.67E-05	-0.00599	-0.00967	-0.00318
1.2236	-3.47E-05	-0.00311	-0.00502	-0.00165
1.22409	-4.57E-05	-0.0041	-0.00661	-0.00217
1.2246	-8.99E-05	-0.00807	-0.01303	-0.00428
1.2251	-4.70E-05	-0.00422	-0.00681	-0.00224
1.2256	1.36E-05	0.00122	0.00197	6.46E-04
1.22609	-6.51E-06	-5.84E-04	-9.43E-04	-3.10E-04
1.22659	-2.81E-06	-2.52E-04	-4.07E-04	-1.34E-04
1.22711	-3.40E-05	-0.00305	-0.00493	-0.00162
1.22761	-7.61E-05	-0.00683	-0.01103	-0.00363
1.2281	-6.04E-05	-0.00542	-0.00875	-0.00288
1.22861	-4.86E-05	-0.00436	-0.00704	-0.00232
1.2291	-8.29E-05	-0.00744	-0.01201	-0.00395
1.2296	-5.76E-05	-0.00517	-0.00834	-0.00274
1.2301	-3.27E-05	-0.00293	-0.00474	-0.00156
1.23059	-8.96E-05	-0.00804	-0.01298	-0.00427
1.23108	-9.84E-05	-0.00883	-0.01426	-0.00469
1.23159	-5.06E-05	-0.00454	-0.00733	-0.00241
1.23209	-8.50E-05	-0.00763	-0.01231	-0.00405
1.23258	-1.12E-04	-0.01006	-0.01623	-0.00534
1.23308	-7.76E-05	-0.00697	-0.01124	-0.0037
1.23359	-6.69E-05	-0.006	-0.00969	-0.00318
1.23408	-8.04E-05	-0.00722	-0.01165	-0.00383
1.23459	-5.59E-05	-0.00501	-0.00809	-0.00266
1.23509	-4.27E-05	-0.00383	-0.00618	-0.00203
1.23559	-6.35E-05	-0.0057	-0.0092	-0.00302
1.23608	-6.02E-05	-0.0054	-0.00872	-0.00286
1.23659	-4.52E-05	-0.00406	-0.00655	-0.00215
1.23708	-6.12E-05	-0.00549	-0.00887	-0.00291
1.23762	-4.97E-05	-0.00446	-0.00719	-0.00236
1.23813	-3.99E-05	-0.00358	-0.00578	-0.0019
1.23863	-7.55E-05	-0.00678	-0.01094	-0.0036
1.23913	-7.58E-05	-0.0068	-0.01098	-0.00361
1.23963	-5.73E-05	-0.00514	-0.0083	-0.00273
1.24012	-5.79E-05	-0.00519	-0.00838	-0.00276
1.24062	-8.23E-05	-0.00739	-0.01193	-0.00392
1.24112	-4.08E-05	-0.00366	-0.0059	-0.00194
1.24163	-3.66E-05	-0.00328	-0.0053	-0.00174
1.24212	-7.88E-05	-0.00707	-0.01142	-0.00375
1.24262	-5.76E-05	-0.00517	-0.00834	-0.00274
1.24312	-4.72E-05	-0.00423	-0.00683	-0.00225
1.24362	-7.13E-05	-0.0064	-0.01033	-0.0034
1.24411	-5.98E-05	-0.00537	-0.00866	-0.00285
1.24461	-3.51E-05	-0.00315	-0.00508	-0.00167
1.24511	-6.52E-05	-0.00585	-0.00945	-0.0031
1.24561	-7.10E-05	-0.00638	-0.01029	-0.00338
1.2461	-5.40E-05	-0.00485	-0.00782	-0.00257
1.24661	-6.96E-05	-0.00625	-0.01008	-0.00331
1.24711	-6.56E-05	-0.00589	-0.00951	-0.00313
1.2476	-4.30E-05	-0.00386	-0.00623	-0.00205
1.2481	-6.15E-05	-0.00552	-0.0089	-0.00293
1.24861	-8.39E-05	-0.00753	-0.01216	-0.004
1.2491	-3.52E-05	-0.00316	-0.00509	-0.00167
1.2496	-3.72E-05	-0.00334	-0.00538	-0.00177
1.2501	-7.12E-05	-0.00639	-0.01032	-0.00339
1.2506	-5.52E-05	-0.00495	-0.008	-0.00263
1.25111	-3.90E-05	-0.0035	-0.00565	-0.00186
1.2516	-3.49E-05	-0.00313	-0.00506	-0.00166
1.2521	-4.74E-05	-0.00425	-0.00687	-0.00226
1.25261	-2.99E-05	-0.00269	-0.00433	-0.00142
1.2531	-4.28E-05	-0.00384	-0.0062	-0.00204
1.2536	-7.79E-05	-0.00699	-0.01129	-0.00371
1.2541	-6.09E-05	-0.00546	-0.00882	-0.0029
1.25459	-8.11E-05	-0.00728	-0.01175	-0.00386
1.25509	-8.11E-05	-0.00728	-0.01175	-0.00386
1.2556	-3.98E-05	-0.00357	-0.00577	-0.0019
1.25609	-6.91E-05	-0.0062	-0.01001	-0.00329
1.25658	-1.19E-04	-0.01064	-0.01718	-0.00565
1.25709	-7.49E-05	-0.00672	-0.01085	-0.00357
1.25759	-8.83E-05	-0.00793	-0.01279	-0.00421
1.25808	-1.05E-04	-0.00945	-0.01525	-0.00501
1.25858	-8.28E-05	-0.00744	-0.012	-0.00394
1.25908	-5.26E-05	-0.00472	-0.00761	-0.0025
1.25958	-9.52E-05	-0.00855	-0.01379	-0.00453
1.26008	-8.37E-05	-0.00751	-0.01212	-0.00398
1.26058	-7.05E-05	-0.00633	-0.01021	-0.00336
1.26108	-8.54E-05	-0.00766	-0.01237	-0.00407
1.26158	-6.55E-05	-0.00588	-0.00949	-0.00312
1.26207	-4.37E-05	-0.00392	-0.00633	-0.00208
1.26257	-8.36E-05	-0.00751	-0.01212	-0.00398
1.26307	-9.06E-05	-0.00813	-0.01313	-0.00431
1.26358	-4.85E-05	-0.00436	-0.00703	-0.00231
1.26408	-4.61E-05	-0.00414	-0.00668	-0.00219
1.26459	-6.27E-05	-0.00563	-0.00908	-0.00299
1.26509	-4.26E-05	-0.00382	-0.00617	-0.00203
1.26558	-4.01E-05	-0.0036	-0.00581	-0.00191
1.26608	-8.23E-05	-0.00739	-0.01192	-0.00392
1.26658	-6.11E-05	-0.00548	-0.00885	-0.00291
1.26709	-2.75E-05	-0.00247	-0.00399	-0.00131
1.26758	-5.45E-05	-0.00489	-0.0079	-0.0026
1.26808	-3.87E-05	-0.00347	-0.0056	-0.00184
1.26858	-4.56E-05	-0.00409	-0.0066	-0.00217
1.26908	-5.71E-05	-0.00512	-0.00827	-0.00272
1.26958	-6.12E-05	-0.00549	-0.00887	-0.00291
1.27007	-4.67E-05	-0.00419	-0.00677	-0.00222
1.27057	-7.13E-05	-0.0064	-0.01033	-0.0034
1.27107	-8.53E-05	-0.00766	-0.01236	-0.00406
1.27157	-3.66E-05	-0.00328	-0.0053	-0.00174
1.27207	-3.84E-05	-0.00344	-0.00556	-0.00183
1.27257	-7.43E-05	-0.00667	-0.01076	-0.00354
1.27307	-5.91E-05	-0.0053	-0.00856	-0.00281
1.27356	-2.89E-05	-0.0026	-0.00419	-0.00138
1.27406	-7.31E-05	-0.00656	-0.0106	-0.00348
1.27456	-4.70E-05	-0.00422	-0.00681	-0.00224
1.27506	-3.86E-05	-0.00346	-0.00559	-0.00184
1.27556	-5.96E-05	-0.00535	-0.00863	-0.00284
1.27607	-6.07E-05	-0.00545	-0.0088	-0.00289
1.27658	-4.83E-05	-0.00433	-0.007	-0.0023
1.27706	-4.86E-05	-0.00436	-0.00703	-0.00231
1.27756	-9.04E-06	-8.12E-04	-0.00131	-4.31E-04
1.27806	-4.98E-06	-4.47E-04	-7.21E-04	-2.37E-04
1.27856	-1.15E-05	-0.00103	-0.00167	-5.48E-04
1.27906	-5.28E-05	-0.00474	-0.00765	-0.00251
1.27957	-2.81E-05	-0.00252	-0.00407	-0.00134
1.28006	-4.49E-05	-0.00403	-0.0065	-0.00214
1.28055	-8.20E-05	-0.00736	-0.01188	-0.0039
1.28106	-5.31E-05	-0.00477	-0.0077	-0.00253
1.28156	-3.45E-05	-0.0031	-0.005	-0.00164
1.28205	-1.07E-04	-0.0096	-0.01549	-0.00509
1.28255	-8.86E-05	-0.00795	-0.01284	-0.00422
1.28305	-1.10E-04	-0.00991	-0.016	-0.00526
1.28355	-1.28E-04	-0.0115	-0.01857	-0.0061
1.28404	-1.01E-04	-0.00905	-0.0146	-0.0048
1.28455	-8.64E-05	-0.00775	-0.01251	-0.00411
1.28505	-1.08E-04	-0.0097	-0.01566	-0.00515
1.28555	-1.14E-04	-0.01022	-0.01649	-0.00542
1.28605	-7.07E-05	-0.00634	-0.01024	-0.00337
1.28655	-8.70E-05	-0.00781	-0.0126	-0.00414
1.28704	-8.86E-05	-0.00796	-0.01284	-0.00422
1.28754	-7.68E-05	-0.00689	-0.01112	-0.00366
1.28804	-8.67E-05	-0.00778	-0.01256	-0.00413
1.28854	-1.15E-04	-0.01031	-0.01663	-0.00547
1.28908	-8.07E-05	-0.00724	-0.01169	-0.00384
1.28958	-6.44E-05	-0.00578	-0.00933	-0.00307
1.29009	-8.11E-05	-0.00728	-0.01175	-0.00386
1.29059	-5.94E-05	-0.00533	-0.00861	-0.00283
1.29109	-4.31E-05	-0.00387	-0.00624	-0.00205
1.29159	-5.97E-05	-0.00536	-0.00865	-0.00284
1.29209	-5.65E-05	-0.00507	-0.00819	-0.00269
1.29259	-1.92E-05	-0.00172	-0.00278	-9.15E-04
1.29308	-5.54E-05	-0.00498	-0.00803	-0.00264
1.29358	-4.22E-05	-0.00379	-0.00611	-0.00201
1.29408	-2.69E-05	-0.00241	-0.00389	-0.00128
1.29457	-5.30E-05	-0.00476	-0.00768	-0.00253
1.29507	-8.02E-05	-0.0072	-0.01161	-0.00382
1.29557	-5.71E-05	-0.00513	-0.00828	-0.00272
1.29607	-4.77E-05	-0.00428	-0.0069	-0.00227
1.29657	-7.00E-05	-0.00629	-0.01015	-0.00333
1.29706	-4.45E-05	-0.00399	-0.00645	-0.00212
1.29756	-1.41E-05	-0.00127	-0.00205	-6.74E-04
1.29806	-6.88E-05	-0.00618	-0.00997	-0.00328
1.29856	-5.69E-05	-0.00511	-0.00825	-0.00271
1.29906	-1.67E-05	-0.0015	-0.00242	-7.96E-04
1.29955	-5.79E-05	-0.00519	-0.00838	-0.00276
1.30005	-4.95E-05	-0.00444	-0.00717	-0.00236
1.30055	-3.79E-05	-0.0034	-0.00548	-0.0018
1.30105	-4.95E-05	-0.00444	-0.00717	-0.00236
1.30156	-4.40E-05	-0.00395	-0.00637	-0.00209
1.30206	-4.36E-05	-0.00391	-0.00632	-0.00208
1.30255	-3.29E-05	-0.00296	-0.00477	-0.00157
1.30304	-2.84E-05	-0.00254	-0.00411	-0.00135
1.30355	-1.52E-05	-0.00137	-0.00221	-7.26E-04
1.30406	-2.23E-05	-0.002	-0.00323	-0.00106
1.30456	-1.98E-05	-0.00178	-0.00288	-9.45E-04
1.30506	-1.09E-05	-9.79E-04	-0.00158	-5.20E-04
1.30556	8.26E-06	7.42E-04	0.0012	3.93E-04
1.30606	-2.97E-05	-0.00267	-0.00431	-0.00142
1.30656	-1.27E-05	-0.00114	-0.00185	-6.07E-04
1.30706	-6.18E-06	-5.54E-04	-8.95E-04	-2.94E-04
1.30756	-3.55E-05	-0.00318	-0.00514	-0.00169
1.30805	-4.10E-05	-0.00368	-0.00594	-0.00195
1.30856	-3.38E-05	-0.00304	-0.0049	-0.00161
1.30905	-8.99E-05	-0.00807	-0.01303	-0.00428
1.30955	-7.83E-05	-0.00703	-0.01134	-0.00373
1.31005	-6.30E-05	-0.00565	-0.00913	-0.003
1.31054	-8.91E-05	-0.008	-0.0129	-0.00424
1.31104	-1.10E-04	-0.00988	-0.01594	-0.00524
1.31154	-7.33E-05	-0.00658	-0.01062	-0.00349
1.31204	-4.40E-05	-0.00395	-0.00638	-0.0021
1.31254	-7.63E-05	-0.00685	-0.01105	-0.00363
1.31304	-5.84E-05	-0.00524	-0.00846	-0.00278
1.31354	-3.64E-05	-0.00327	-0.00528	-0.00173
1.31403	-9.10E-05	-0.00817	-0.01319	-0.00434
1.31457	-6.31E-05	-0.00566	-0.00914	-0.003
1.31508	-3.62E-05	-0.00325	-0.00525	-0.00172
1.31558	-5.07E-05	-0.00455	-0.00735	-0.00242
1.31608	-2.23E-05	-0.002	-0.00323	-0.00106
1.31658	-6.68E-06	-5.99E-04	-9.67E-04	-3.18E-04
1.31708	-5.88E-05	-0.00527	-0.00851	-0.0028
1.31758	-5.62E-05	-0.00505	-0.00815	-0.00268
1.31808	-4.83E-05	-0.00433	-0.00699	-0.0023
1.31858	-6.95E-05	-0.00624	-0.01006	-0.00331
1.31908	-8.70E-05	-0.00781	-0.01261	-0.00414
1.31957	-6.01E-05	-0.00539	-0.0087	-0.00286
1.32007	-4.93E-05	-0.00442	-0.00714	-0.00235
1.32057	-7.95E-05	-0.00714	-0.01152	-0.00379
1.32107	-5.89E-05	-0.00528	-0.00853	-0.0028
1.32157	-6.27E-05	-0.00563	-0.00908	-0.00298
1.32207	-7.77E-05	-0.00698	-0.01126	-0.0037
1.32257	-6.69E-05	-0.006	-0.00969	-0.00318
1.32307	-2.95E-05	-0.00265	-0.00428	-0.00141
1.32357	-7.35E-05	-0.0066	-0.01065	-0.0035
1.32406	-7.04E-05	-0.00632	-0.01019	-0.00335
1.32456	-5.28E-05	-0.00474	-0.00765	-0.00251
1.32506	-7.39E-05	-0.00663	-0.01071	-0.00352
1.32556	-7.17E-05	-0.00643	-0.01038	-0.00341
1.32605	-5.65E-05	-0.00507	-0.00818	-0.00269
1.32655	-6.78E-05	-0.00608	-0.00982	-0.00323
1.32706	-7.40E-05	-0.00664	-0.01072	-0.00352
1.32756	-4.20E-05	-0.00377	-0.00608	-0.002
1.32806	-3.04E-06	-2.73E-04	-4.41E-04	-1.45E-04
1.32855	-4.10E-05	-0.00368	-0.00594	-0.00195
1.32905	-2.87E-05	-0.00257	-0.00415	-0.00136
1.32956	-4.31E-05	-0.00387	-0.00624	-0.00205
1.33006	-9.61E-05	-0.00862	-0.01392	-0.00458
1.33056	-7.01E-05	-0.00629	-0.01015	-0.00334
1.33107	-5.24E-05	-0.0047	-0.00759	-0.00249
1.33156	-7.48E-05	-0.00672	-0.01084	-0.00356
1.33206	-4.74E-05	-0.00426	-0.00687	-0.00226
1.33256	-4.50E-05	-0.00404	-0.00652	-0.00214
1.33305	-7.50E-05	-0.00674	-0.01087	-0.00357
1.33355	-7.77E-05	-0.00698	-0.01126	-0.0037
1.33405	-4.39E-05	-0.00394	-0.00635	-0.00209
1.33455	-5.94E-05	-0.00533	-0.0086	-0.00283
1.33504	-7.44E-05	-0.00668	-0.01078	-0.00354
1.33555	-3.57E-05	-0.00321	-0.00517	-0.0017
1.33605	-4.46E-05	-0.004	-0.00646	-0.00212
1.33654	-8.13E-05	-0.0073	-0.01177	-0.00387
1.33704	-5.19E-05	-0.00466	-0.00751	-0.00247
1.33754	-1.35E-05	-0.00121	-0.00196	-6.43E-04
1.33804	-4.66E-05	-0.00418	-0.00675	-0.00222
1.33854	-3.59E-05	-0.00322	-0.0052	-0.00171
1.33904	-2.17E-05	-0.00195	-0.00315	-0.00104
1.33953	-6.44E-05	-0.00578	-0.00933	-0.00307
1.34007	-5.57E-05	-0.005	-0.00807	-0.00265
1.34058	-4.43E-05	-0.00398	-0.00642	-0.00211
1.34108	-4.82E-05	-0.00433	-0.00698	-0.00229
1.34158	-5.31E-05	-0.00477	-0.0077	-0.00253
1.34208	-3.74E-05	-0.00336	-0.00542	-0.00178
1.34258	-4.69E-05	-0.00421	-0.00679	-0.00223
1.34308	-6.01E-05	-0.0054	-0.00871	-0.00286
1.34358	-5.32E-05	-0.00477	-0.0077	-0.00253
1.34408	-5.82E-05	-0.00522	-0.00843	-0.00277
1.34458	-7.82E-05	-0.00702	-0.01132	-0.00372
1.34508	-3.53E-05	-0.00317	-0.00512	-0.00168
1.34558	-3.73E-05	-0.00334	-0.0054	-0.00177
1.34607	-9.49E-05	-0.00852	-0.01375	-0.00452
1.34657	-6.76E-05	-0.00607	-0.0098	-0.00322
1.34707	-5.58E-05	-0.00501	-0.00808	-0.00266
1.34757	-7.05E-05	-0.00633	-0.01022	-0.00336
1.34807	-5.85E-05	-0.00525	-0.00847	-0.00279
1.34856	-3.98E-05	-0.00357	-0.00576	-0.00189
1.34907	-7.55E-05	-0.00678	-0.01094	-0.0036
1.34957	-6.74E-05	-0.00605	-0.00977	-0.00321
1.35006	-5.36E-05	-0.00481	-0.00776	-0.00255
1.35056	-6.34E-05	-0.00569	-0.00918	-0.00302
1.35107	-8.71E-05	-0.00782	-0.01261	-0.00415
1.35156	-4.38E-05	-0.00393	-0.00634	-0.00208
1.35206	-6.36E-05	-0.00571	-0.00922	-0.00303
1.35256	-1.22E-04	-0.01099	-0.01774	-0.00583
1.35306	-8.76E-05	-0.00787	-0.0127	-0.00417
1.35356	-6.90E-05	-0.0062	-0.01	-0.00329
1.35405	-7.91E-05	-0.0071	-0.01146	-0.00377
1.35455	-4.64E-05	-0.00416	-0.00672	-0.00221
1.35506	-5.90E-05	-0.0053	-0.00855	-0.00281
1.35556	-6.42E-05	-0.00577	-0.00931	-0.00306
1.35606	-5.84E-05	-0.00524	-0.00846	-0.00278
1.35656	-2.17E-05	-0.00195	-0.00315	-0.00103
1.35705	-5.55E-05	-0.00498	-0.00803	-0.00264
1.35756	-5.02E-05	-0.0045	-0.00727	-0.00239
1.35806	-4.70E-05	-0.00422	-0.00681	-0.00224
1.35855	-7.27E-05	-0.00652	-0.01053	-0.00346
1.35904	-1.15E-04	-0.01029	-0.01661	-0.00546
1.35955	-6.66E-05	-0.00598	-0.00965	-0.00317
1.36005	-6.86E-05	-0.00616	-0.00994	-0.00327
1.36054	-1.31E-04	-0.01173	-0.01892	-0.00622
1.36105	-7.45E-05	-0.00668	-0.01079	-0.00355
1.36155	-8.02E-05	-0.0072	-0.01161	-0.00382
1.36204	-9.75E-05	-0.00876	-0.01413	-0.00464
1.36254	-7.40E-05	-0.00664	-0.01072	-0.00352
1.36305	-6.82E-05	-0.00612	-0.00988	-0.00325
1.36354	-6.28E-05	-0.00563	-0.00909	-0.00299
1.36404	-4.68E-05	-0.0042	-0.00677	-0.00223
1.36454	-6.08E-05	-0.00545	-0.0088	-0.00289
1.36504	-8.56E-05	-0.00768	-0.0124	-0.00408
1.36554	-6.62E-05	-0.00595	-0.0096	-0.00315
1.36604	-3.77E-05	-0.00339	-0.00546	-0.0018
1.36655	-5.97E-05	-0.00536	-0.00864	-0.00284
1.36705	-6.84E-05	-0.00614	-0.0099	-0.00326
1.36755	-5.18E-05	-0.00465	-0.0075	-0.00247
1.36805	-5.34E-05	-0.00479	-0.00774	-0.00254
1.36855	-7.43E-05	-0.00667	-0.01076	-0.00354
1.36904	-4.04E-05	-0.00362	-0.00585	-0.00192
1.36955	-4.44E-06	-3.99E-04	-6.43E-04	-2.12E-04
1.37004	-4.50E-05	-0.00404	-0.00651	-0.00214
1.37054	-3.83E-05	-0.00344	-0.00555	-0.00182
1.37104	-7.08E-06	-6.35E-04	-0.00103	-3.37E-04
1.37154	-3.31E-05	-0.00297	-0.0048	-0.00158
1.37204	-2.65E-05	-0.00238	-0.00384	-0.00126
1.37254	2.16E-05	0.00194	0.00313	0.00103
1.37304	-2.67E-05	-0.0024	-0.00387	-0.00127
1.37354	-1.69E-05	-0.00152	-0.00245	-8.04E-04
1.37403	1.82E-05	0.00164	0.00264	8.68E-04
1.37453	3.29E-06	2.96E-04	4.77E-04	1.57E-04
1.37504	-2.30E-05	-0.00207	-0.00333	-0.0011
1.37553	-1.61E-06	-1.44E-04	-2.33E-04	-7.65E-05
1.37603	8.50E-06	7.63E-04	0.00123	4.05E-04
1.37653	-3.29E-05	-0.00295	-0.00476	-0.00156
1.37703	-1.32E-05	-0.00119	-0.00192	-6.31E-04
1.37752	1.67E-05	0.0015	0.00242	7.95E-04
1.37802	-1.33E-05	-0.0012	-0.00193	-6.35E-04
1.37853	-7.07E-07	-6.35E-05	-1.02E-04	-3.37E-05
1.37903	2.37E-05	0.00212	0.00343	0.00113
1.37952	2.11E-05	0.00189	0.00305	0.001
1.38002	1.60E-05	0.00143	0.00231	7.60E-04
1.38052	2.89E-05	0.00259	0.00418	0.00137
1.38102	-1.51E-05	-0.00136	-0.00219	-7.20E-04
1.38152	-9.88E-06	-8.87E-04	-0.00143	-4.70E-04
1.38203	2.22E-05	0.00199	0.00321	0.00106
1.38252	-7.40E-07	-6.65E-05	-1.07E-04	-3.53E-05
1.38301	-3.06E-05	-0.00274	-0.00443	-0.00145
1.38352	-1.77E-05	-0.00159	-0.00257	-8.43E-04
1.38401	-2.62E-05	-0.00236	-0.0038	-0.00125
1.38451	-5.98E-05	-0.00537	-0.00866	-0.00285
1.38501	-4.50E-05	-0.00404	-0.00652	-0.00214
1.38552	-3.77E-05	-0.00338	-0.00546	-0.00179
1.38601	-4.40E-05	-0.00395	-0.00637	-0.00209
1.38651	-2.03E-05	-0.00183	-0.00295	-9.69E-04
1.38702	1.79E-05	0.00161	0.0026	8.54E-04
1.38751	-3.18E-05	-0.00285	-0.0046	-0.00151
1.38801	-2.71E-05	-0.00243	-0.00393	-0.00129
1.38852	-5.94E-06	-5.33E-04	-8.61E-04	-2.83E-04
1.38901	-4.21E-05	-0.00378	-0.00609	-0.002
1.38951	-2.26E-05	-0.00203	-0.00327	-0.00108
1.39001	-7.07E-07	-6.35E-05	-1.02E-04	-3.37E-05
1.39051	-2.22E-05	-0.002	-0.00322	-0.00106
1.39101	-3.77E-05	-0.00338	-0.00546	-0.00179
1.39155	1.18E-05	0.00106	0.00171	5.63E-04
1.39205	5.37E-05	0.00482	0.00778	0.00256
1.39255	-1.50E-05	-0.00135	-0.00218	-7.16E-04
1.39306	3.50E-05	0.00315	0.00508	0.00167
1.39355	6.22E-05	0.00559	0.00902	0.00296
1.39405	5.63E-06	5.05E-04	8.15E-04	2.68E-04
1.39456	2.20E-05	0.00198	0.00319	0.00105
1.39505	3.92E-05	0.00352	0.00568	0.00187
1.39555	1.77E-05	0.00159	0.00257	8.44E-04
1.39605	3.82E-05	0.00343	0.00554	0.00182
1.39655	4.72E-05	0.00424	0.00684	0.00225
1.39704	-9.24E-06	-8.30E-04	-0.00134	-4.40E-04
1.39754	-1.39E-05	-0.00125	-0.00201	-6.61E-04
1.39803	4.71E-05	0.00423	0.00683	0.00224
1.39854	2.92E-05	0.00262	0.00424	0.00139
1.39904	-2.68E-05	-0.0024	-0.00388	-0.00128
1.39953	-2.73E-07	-2.45E-05	-3.96E-05	-1.30E-05
1.40003	2.23E-05	0.002	0.00323	0.00106
1.40053	-2.39E-05	-0.00215	-0.00347	-0.00114
1.40104	2.42E-05	0.00218	0.00351	0.00115
1.40153	7.60E-05	0.00682	0.01101	0.00362
1.40203	5.15E-05	0.00462	0.00746	0.00245
1.40253	5.54E-05	0.00498	0.00803	0.00264
1.40303	6.97E-05	0.00626	0.0101	0.00332
1.40352	2.29E-05	0.00205	0.00331	0.00109
1.40403	2.31E-05	0.00207	0.00335	0.0011
1.40454	3.72E-05	0.00334	0.00539	0.00177
1.40502	5.39E-05	0.00484	0.00781	0.00257
1.40552	3.71E-05	0.00333	0.00538	0.00177
1.40602	7.87E-05	0.00707	0.0114	0.00375
1.40652	8.73E-05	0.00784	0.01265	0.00416
1.40702	1.91E-05	0.00171	0.00276	9.08E-04
1.40753	3.45E-05	0.00309	0.00499	0.00164
1.40802	5.37E-05	0.00482	0.00779	0.00256
1.40852	3.22E-05	0.00289	0.00467	0.00153
1.40902	1.82E-05	0.00163	0.00263	8.65E-04
1.40953	2.96E-05	0.00265	0.00428	0.00141
1.41002	-1.69E-05	-0.00152	-0.00245	-8.05E-04
1.41052	-5.18E-06	-4.65E-04	-7.50E-04	-2.46E-04
1.41103	2.89E-05	0.00259	0.00419	0.00138
1.41152	7.56E-06	6.79E-04	0.0011	3.60E-04
1.41202	1.33E-05	0.00119	0.00193	6.33E-04
1.41252	2.99E-05	0.00268	0.00433	0.00142
1.41301	-8.24E-06	-7.40E-04	-0.00119	-3.93E-04
1.41351	-3.18E-05	-0.00286	-0.00461	-0.00152
1.41401	1.07E-05	9.63E-04	0.00155	5.11E-04
1.41451	-2.27E-05	-0.00204	-0.0033	-0.00108
1.415	-3.28E-05	-0.00295	-0.00475	-0.00156
1.4155	1.03E-05	9.21E-04	0.00149	4.89E-04
1.416	2.83E-05	0.00254	0.0041	0.00135
1.4165	-9.28E-06	-8.33E-04	-0.00134	-4.42E-04
1.41705	9.83E-06	8.82E-04	0.00142	4.68E-04
1.41755	6.20E-05	0.00556	0.00898	0.00295
1.41805	5.40E-06	4.84E-04	7.82E-04	2.57E-04
1.41856	2.21E-05	0.00199	0.00321	0.00105
1.41906	2.84E-05	0.00255	0.00411	0.00135
1.41956	-1.18E-05	-0.00106	-0.00171	-5.61E-04
1.42005	-1.42E-05	-0.00127	-0.00205	-6.75E-04
1.42056	2.16E-05	0.00194	0.00313	0.00103
1.42105	-7.58E-06	-6.80E-04	-0.0011	-3.61E-04
1.42155	2.93E-06	2.63E-04	4.24E-04	1.39E-04
1.42205	3.14E-05	0.00282	0.00455	0.0015
1.42255	6.96E-06	6.25E-04	0.00101	3.32E-04
1.42304	-5.81E-06	-5.21E-04	-8.42E-04	-2.77E-04
1.42355	2.35E-05	0.00211	0.0034	0.00112
1.42404	3.87E-05	0.00347	0.00561	0.00184
1.42454	1.09E-06	9.82E-05	1.58E-04	5.21E-05
1.42504	1.10E-05	9.90E-04	0.0016	5.25E-04
